Data File Name,Eukaryote Total RNA Nano_2020-10-12_16-05-51.xad
Data File Path,C:\Program Files (x86)\Agilent\2100 bioanalyzer\2100 expert\data\2020-10-12
Date Created,"Monday, October 12, 2020 11:05:51 PM"
Date Last Modified,"Monday, October 12, 2020 11:40:15 PM"
Version Created,B.02.10.SI764
Version Last Modified,B.02.10.SI764
 
Assay Name,Eukaryote Total RNA Nano Series II
Assay Path,C:\Program Files (x86)\Agilent\2100 bioanalyzer\2100 expert\assays\RNA
Assay Title,Eukaryote Total RNA Nano
Assay Version,2.6
 
Number of Samples Run,12
 
Sample Name,RNA3_TP2
Number of Events,1060
 
Time,Value
17,-0.5799282
17.05,-0.5606402
17.1,-0.5473301
17.15,-0.5698094
17.2,-0.5886503
17.25,-0.5960513
17.3,-0.620677
17.35,-0.6266112
17.4,-0.6416831
17.45,-0.6486701
17.5,-0.6492789
17.55,-0.6480976
17.6,-0.6440112
17.65,-0.6399246
17.7,-0.6531357
17.75,-0.6604536
17.8,-0.6699948
17.85,-0.6752942
17.9,-0.6868631
17.95,-0.7055877
18,-0.7139871
18.05,-0.7134601
18.1,-0.6904864
18.15,-0.6575861
18.2,-0.6352652
18.25,-0.6236606
18.3,-0.6250808
18.35,-0.6369935
18.4,-0.6395859
18.45,-0.6467286
18.5,-0.6275926
18.55,-0.6267126
18.6,-0.6339201
18.65,-0.6175219
18.7,-0.5897468
18.75,-0.5649338
18.8,-0.5306656
18.85,-0.4378721
18.9,-0.2042486
18.95,0.205892
19,0.7501075
19.05,1.276426
19.1,1.567335
19.15,1.485721
19.2,1.070155
19.25,0.4855133
19.3,-6.489427E-02
19.35,-0.4408445
19.4,-0.6208783
19.45,-0.6692481
19.5,-0.6646692
19.55,-0.6504545
19.6,-0.6284807
19.65,-0.6070095
19.7,-0.5900837
19.75,-0.5754002
19.8,-0.5908157
19.85,-0.622346
19.9,-0.6450859
19.95,-0.6609628
20,-0.651593
20.05,-0.6373313
20.1,-0.6289582
20.15,-0.6275465
20.2,-0.644626
20.25,-0.6574937
20.3,-0.6772407
20.35,-0.6834406
20.4,-0.6617877
20.45,-0.6507936
20.5,-0.63613
20.55,-0.6339794
20.6,-0.6552098
20.65,-0.6795958
20.7,-0.6918753
20.75,-0.6792586
20.8,-0.6570554
20.85,-0.636771
20.9,-0.619312
20.95,-0.6222181
21,-0.6339226
21.05,-0.6244567
21.1,-0.6035372
21.15,-0.5886276
21.2,-0.5748416
21.25,-0.5602751
21.3,-0.5459768
21.35,-0.5365304
21.4,-0.5394863
21.45,-0.5482369
21.5,-0.5706483
21.55,-0.5836343
21.6,-0.5927194
21.65,-0.591633
21.7,-0.5804803
21.75,-0.5778188
21.8,-0.578307
21.85,-0.5817394
21.9,-0.5787649
21.95,-0.5755389
22,-0.575588
22.05,-0.5970936
22.1,-0.6584178
22.15,-0.7631394
22.2,-0.6039894
22.25,0.8621609
22.3,4.521752
22.35,10.13637
22.4,16.47358
22.45,21.65886
22.5,24.29645
22.55,23.78205
22.6,20.91614
22.65,17.03419
22.7,13.1664
22.75,9.71935
22.8,6.895352
22.85,4.605488
22.9,2.85585
22.95,1.575163
23,0.711794
23.05,0.1382198
23.1,-0.1872284
23.15,-0.3828064
23.2,-0.4811244
23.25,-0.5414744
23.3,-0.5494705
23.35,-0.5278597
23.4,-0.5124008
23.45,-0.5009281
23.5,-0.5047657
23.55,-0.5174677
23.6,-0.4979357
23.65,-0.4703105
23.7,-0.4551267
23.75,-0.4457575
23.8,-0.4611021
23.85,-0.4715013
23.9,-0.474283
23.95,-0.4782059
24,-0.4536043
24.05,-0.4115815
24.1,-0.3736865
24.15,-0.3587594
24.2,-0.3755994
24.25,-0.3993564
24.3,-0.4291981
24.35,-0.4413901
24.4,-0.4451492
24.45,-0.4331979
24.5,-0.4201667
24.55,-0.4115717
24.6,-0.40453
24.65,-0.4104101
24.7,-0.4148651
24.75,-0.4151536
24.8,-0.4130879
24.85,-0.3948735
24.9,-0.372943
24.95,-0.3552927
25,-0.3409117
25.05,-0.3226267
25.1,-0.3031677
25.15,-0.2949736
25.2,-0.2866183
25.25,-0.2875262
25.3,-0.3041204
25.35,-0.3195881
25.4,-0.3255211
25.45,-0.3303273
25.5,-0.3424375
25.55,-0.3464926
25.6,-0.3497771
25.65,-0.3696774
25.7,-0.3612435
25.75,-0.340082
25.8,-0.3348879
25.85,-0.3345759
25.9,-0.3307607
25.95,-0.339154
26,-0.3571284
26.05,-0.3646291
26.1,-0.357558
26.15,-0.3702997
26.2,-0.3755049
26.25,-0.363075
26.3,-0.3323899
26.35,-0.2995609
26.4,-0.2692926
26.45,-0.262006
26.5,-0.2697202
26.55,-0.2798785
26.6,-0.2852625
26.65,-0.2783633
26.7,-0.2626287
26.75,-0.2467587
26.8,-0.2427717
26.85,-0.2412181
26.9,-0.2214749
26.95,-0.203194
27,-0.1734192
27.05,-0.1450188
27.1,-0.130145
27.15,-0.1274116
27.2,-0.1234613
27.25,-0.1169475
27.3,-0.1006686
27.35,-7.539665E-02
27.4,-5.651798E-02
27.45,-6.891052E-02
27.5,-9.591178E-02
27.55,-0.1033558
27.6,-9.488259E-02
27.65,-9.061042E-02
27.7,-5.613184E-02
27.75,-3.829812E-02
27.8,-3.781688E-02
27.85,-1.194391E-02
27.9,2.476028E-02
27.95,8.325672E-02
28,8.839159E-02
28.05,7.401327E-02
28.1,0.0611525
28.15,1.049398E-02
28.2,1.534453E-02
28.25,6.504171E-02
28.3,0.1266594
28.35,0.1691969
28.4,0.1634782
28.45,0.1701779
28.5,0.1765553
28.55,0.1757907
28.6,0.2180805
28.65,0.2590742
28.7,0.3270183
28.75,0.4485508
28.8,0.6791471
28.85,1.134387
28.9,1.779312
28.95,2.635269
29,3.605854
29.05,4.590325
29.1,5.505731
29.15,6.299734
29.2,6.858492
29.25,7.197715
29.3,7.172163
29.35,6.822603
29.4,6.208623
29.45,5.449389
29.5,4.626941
29.55,3.857495
29.6,3.203642
29.65,2.683649
29.7,2.266082
29.75,1.943361
29.8,1.698569
29.85,1.49567
29.9,1.314956
29.95,1.191306
30,1.069196
30.05,0.9401267
30.1,0.8504963
30.15,0.7812559
30.2,0.7347135
30.25,0.6971777
30.3,0.6615074
30.35,0.6025485
30.4,0.5325478
30.45,0.4875658
30.5,0.4466165
30.55,0.3957779
30.6,0.3424267
30.65,0.3114996
30.7,0.2938673
30.75,0.2798642
30.8,0.2740247
30.85,0.2728245
30.9,0.2621121
30.95,0.2500785
31,0.2367007
31.05,0.2263785
31.1,0.23331
31.15,0.2820319
31.2,0.3994753
31.25,0.5162902
31.3,0.5564303
31.35,0.5391715
31.4,0.4958681
31.45,0.4631586
31.5,0.463293
31.55,0.5085135
31.6,0.5759006
31.65,0.5894895
31.7,0.5899037
31.75,0.606644
31.8,0.6197384
31.85,0.6211259
31.9,0.6366212
31.95,0.6407028
32,0.6422842
32.05,0.6381174
32.1,0.6472539
32.15,0.6347317
32.2,0.6412634
32.25,0.6564047
32.3,0.6785676
32.35,0.6821525
32.4,0.6857269
32.45,0.6702368
32.5,0.6545316
32.55,0.6777297
32.6,0.699946
32.65,0.7015743
32.7,0.7118366
32.75,0.7168204
32.8,0.7208331
32.85,0.7687373
32.9,0.806291
32.95,0.8568929
33,0.8904366
33.05,0.9598114
33.1,1.017497
33.15,1.030379
33.2,1.0384
33.25,1.059023
33.3,1.050514
33.35,1.06103
33.4,1.090063
33.45,1.09621
33.5,1.092069
33.55,1.080494
33.6,1.094777
33.65,1.142728
33.7,1.153616
33.75,1.183617
33.8,1.222163
33.85,1.251995
33.9,1.272258
33.95,1.274353
34,1.298733
34.05,1.305391
34.1,1.283239
34.15,1.293873
34.2,1.307323
34.25,1.320855
34.3,1.321994
34.35,1.349001
34.4,1.378594
34.45,1.406216
34.5,1.462798
34.55,1.510605
34.6,1.549891
34.65,1.569161
34.7,1.590307
34.75,1.628587
34.8,1.676638
34.85,1.72086
34.9,1.768417
34.95,1.836809
35,1.933563
35.05,2.018091
35.1,2.06156
35.15,2.067057
35.2,2.027999
35.25,1.984342
35.3,1.978511
35.35,2.017122
35.4,2.049293
35.45,2.07592
35.5,2.098342
35.55,2.09502
35.6,2.091774
35.65,2.109576
35.7,2.127186
35.75,2.130266
35.8,2.123963
35.85,2.142177
35.9,2.162161
35.95,2.184743
36,2.240246
36.05,2.330298
36.1,2.441599
36.15,2.573118
36.2,2.751133
36.25,2.977963
36.3,3.231495
36.35,3.537359
36.4,3.925157
36.45,4.370401
36.5,4.870838
36.55,5.435049
36.6,5.98654
36.65,6.485117
36.7,6.947681
36.75,7.415451
36.8,7.866605
36.85,8.256139
36.9,8.595494
36.95,8.802017
37,8.875711
37.05,8.863598
37.1,8.796215
37.15,8.700969
37.2,8.556671
37.25,8.35932
37.3,8.098324
37.35,7.796287
37.4,7.500134
37.45,7.142544
37.5,6.774231
37.55,6.3838
37.6,5.98932
37.65,5.591026
37.7,5.191742
37.75,4.822692
37.8,4.474522
37.85,4.137353
37.9,3.840661
37.95,3.542421
38,3.256526
38.05,3.001981
38.1,2.718157
38.15,2.464973
38.2,2.23929
38.25,2.057071
38.3,1.90796
38.35,1.79796
38.4,1.690233
38.45,1.565778
38.5,1.393957
38.55,1.2644
38.6,1.132164
38.65,1.01664
38.7,0.9254557
38.75,0.8604313
38.8,0.785818
38.85,0.7108443
38.9,0.6464992
38.95,0.5899945
39,0.532124
39.05,0.4894582
39.1,0.4650706
39.15,0.418593
39.2,0.3626732
39.25,0.3296992
39.3,0.3306772
39.35,0.3348849
39.4,0.3341561
39.45,0.2876808
39.5,0.2460346
39.55,0.2072986
39.6,0.1518672
39.65,0.1386784
39.7,0.1302981
39.75,0.1146196
39.8,9.343346E-02
39.85,0.0785479
39.9,6.734345E-02
39.95,4.682703E-02
40,4.457169E-02
40.05,6.333331E-02
40.1,5.434525E-02
40.15,4.442013E-02
40.2,1.683665E-02
40.25,-6.057203E-03
40.3,-3.438473E-02
40.35,-3.788743E-02
40.4,-5.280345E-02
40.45,-0.0723302
40.5,-9.474837E-02
40.55,-0.1042527
40.6,-0.1121936
40.65,-0.1213239
40.7,-0.1372095
40.75,-0.1406475
40.8,-0.1528737
40.85,-0.1580663
40.9,-0.1834088
40.95,-0.18049
41,-0.1888763
41.05,-0.2026591
41.1,-0.1983557
41.15,-0.1920038
41.2,-0.1924759
41.25,-0.1880421
41.3,-0.1848093
41.35,-0.1615013
41.4,-0.1656003
41.45,-0.1600414
41.5,-0.1581244
41.55,-0.1589727
41.6,-0.1518481
41.65,-0.1474665
41.7,-0.151164
41.75,-0.1447191
41.8,-0.1374641
41.85,-0.1322034
41.9,-0.1246973
41.95,-0.1099223
42,-9.977875E-02
42.05,-0.1041696
42.1,-0.1143994
42.15,-0.1353022
42.2,-0.1663246
42.25,-0.1796207
42.3,-0.1753101
42.35,-0.1633039
42.4,-0.1577337
42.45,-0.1582657
42.5,-0.1675156
42.55,-0.1905878
42.6,-0.1930446
42.65,-0.1883414
42.7,-0.1814931
42.75,-0.1753479
42.8,-0.1859598
42.85,-0.1854327
42.9,-0.1957388
42.95,-0.2252382
43,-0.2320921
43.05,-0.2223943
43.1,-0.2040846
43.15,-0.2017236
43.2,-0.2140529
43.25,-0.2188811
43.3,-0.2316763
43.35,-0.255385
43.4,-0.2481359
43.45,-0.2344088
43.5,-0.2421103
43.55,-0.2525407
43.6,-0.2499544
43.65,-0.2321802
43.7,-0.2203046
43.75,-0.2168867
43.8,-0.1971201
43.85,-0.1882864
43.9,-0.1879557
43.95,-0.1663585
44,-0.1684174
44.05,-0.1661364
44.1,-0.1595278
44.15,-0.1395456
44.2,-0.1276345
44.25,-0.1400862
44.3,-0.1458768
44.35,-0.1664126
44.4,-0.2045883
44.45,-0.2096854
44.5,-0.20869
44.55,-0.2004942
44.6,-0.1945534
44.65,-0.2020375
44.7,-0.2144423
44.75,-0.2439486
44.8,-0.2717154
44.85,-0.2714868
44.9,-0.2583763
44.95,-0.2517999
45,-0.2435493
45.05,-0.2883659
45.1,-0.306217
45.15,-0.324448
45.2,-0.3462369
45.25,-0.3291079
45.3,-0.3136456
45.35,-0.2959914
45.4,-0.3021848
45.45,-0.3172003
45.5,-0.3148747
45.55,-0.3258522
45.6,-0.3110956
45.65,-0.3059399
45.7,-0.3179973
45.75,-0.3284171
45.8,-0.3449858
45.85,-0.3577909
45.9,-0.3533641
45.95,-0.3081028
46,-0.2569673
46.05,-0.248901
46.1,-0.2542922
46.15,-0.2771733
46.2,-0.3059574
46.25,-0.3211576
46.3,-0.3054206
46.35,-0.2782788
46.4,-0.2719812
46.45,-0.2725324
46.5,-0.2755928
46.55,-0.2794974
46.6,-0.2784648
46.65,-0.2766357
46.7,-0.2636498
46.75,-0.2456222
46.8,-0.2337925
46.85,-0.2300672
46.9,-0.2452268
46.95,-0.2601146
47,-0.2755932
47.05,-0.2724745
47.1,-0.2631197
47.15,-0.2537178
47.2,-0.2447979
47.25,-0.2468371
47.3,-0.2488842
47.35,-0.2369282
47.4,-0.2413427
47.45,-0.2566303
47.5,-0.2670281
47.55,-0.2736548
47.6,-0.279192
47.65,-0.2866128
47.7,-0.2857699
47.75,-0.2814911
47.8,-0.2915111
47.85,-0.2957343
47.9,-0.2829371
47.95,-0.2762809
48,-0.2737049
48.05,-0.2718608
48.1,-0.2737303
48.15,-0.2719746
48.2,-0.2738746
48.25,-0.2645394
48.3,-0.2487949
48.35,-0.2473427
48.4,-0.2397275
48.45,-0.226517
48.5,-0.1988237
48.55,-0.1587058
48.6,-0.1366766
48.65,-0.1486629
48.7,-0.1770926
48.75,-0.1957362
48.8,-0.2055532
48.85,-0.2101093
48.9,-0.2078882
48.95,-0.2022478
49,-0.2097989
49.05,-0.2101461
49.1,-0.2131476
49.15,-0.2234524
49.2,-0.2333729
49.25,-0.2319209
49.3,-0.225496
49.35,-0.233637
49.4,-0.2475391
49.45,-0.2600516
49.5,-0.2662019
49.55,-0.2516637
49.6,-0.2537439
49.65,-0.2677329
49.7,-0.2867938
49.75,-0.3255025
49.8,-0.3386602
49.85,-0.3276238
49.9,-0.3184818
49.95,-0.3243934
50,-0.3296134
50.05,-0.3374587
50.1,-0.3221765
50.15,-0.3097011
50.2,-0.3170485
50.25,-0.3437175
50.3,-0.3711444
50.35,-0.3793514
50.4,-0.3737262
50.45,-0.3469475
50.5,-0.2944338
50.55,-0.2822117
50.6,-0.2901446
50.65,-0.3090015
50.7,-0.3190828
50.75,-0.3166274
50.8,-0.3111668
50.85,-0.2814608
50.9,-0.2630951
50.95,-0.2639321
51,-0.2910343
51.05,-0.3258556
51.1,-0.3528626
51.15,-0.3764615
51.2,-0.3799828
51.25,-0.3694643
51.3,-0.3548134
51.35,-0.3496078
51.4,-0.3588531
51.45,-0.3605081
51.5,-0.3577005
51.55,-0.370452
51.6,-0.3619056
51.65,-0.3688893
51.7,-0.3676688
51.75,-0.3717406
51.8,-0.3653208
51.85,-0.3516957
51.9,-0.3682406
51.95,-0.3897074
52,-0.3845819
52.05,-0.3944774
52.1,-0.3891734
52.15,-0.3861777
52.2,-0.379467
52.25,-0.3824953
52.3,-0.4074705
52.35,-0.4024893
52.4,-0.3617802
52.45,-0.3124267
52.5,-0.2880839
52.55,-0.3163138
52.6,-0.3564721
52.65,-0.3996283
52.7,-0.4333462
52.75,-0.4160365
52.8,-0.3802985
52.85,-0.3567099
52.9,-0.3496097
52.95,-0.3644292
53,-0.3757011
53.05,-0.3892548
53.1,-0.3961763
53.15,-0.3906417
53.2,-0.3860827
53.25,-0.382917
53.3,-0.3904292
53.35,-0.4102341
53.4,-0.4224442
53.45,-0.4306238
53.5,-0.4258894
53.55,-0.4058571
53.6,-0.3924516
53.65,-0.3862363
53.7,-0.3837513
53.75,-0.3848729
53.8,-0.3888066
53.85,-0.3912627
53.9,-0.3950805
53.95,-0.4044728
54,-0.4064932
54.05,-0.4008717
54.1,-0.4014688
54.15,-0.4066041
54.2,-0.4208126
54.25,-0.4442178
54.3,-0.462219
54.35,-0.4547606
54.4,-0.4339086
54.45,-0.4164944
54.5,-0.4126272
54.55,-0.422988
54.6,-0.4345781
54.65,-0.4450253
54.7,-0.4661469
54.75,-0.4528022
54.8,-0.4342375
54.85,-0.4310523
54.9,-0.4207204
54.95,-0.4140823
55,-0.3986255
55.05,-0.3926625
55.1,-0.3693662
55.15,-0.3532385
55.2,-0.3614776
55.25,-0.3774164
55.3,-0.3546132
55.35,-0.3364674
55.4,-0.3220083
55.45,-0.3056946
55.5,-0.311058
55.55,-0.3471532
55.6,-0.3754822
55.65,-0.3819132
55.7,-0.4008954
55.75,-0.4302875
55.8,-0.445644
55.85,-0.4373667
55.9,-0.4496247
55.95,-0.4547721
56,-0.4404139
56.05,-0.4281023
56.1,-0.4190731
56.15,-0.3958759
56.2,-0.3932048
56.25,-0.4172249
56.3,-0.455024
56.35,-0.481209
56.4,-0.4579612
56.45,-0.4265736
56.5,-0.3744732
56.55,-0.3539377
56.6,-0.3597103
56.65,-0.3956044
56.7,-0.4302832
56.75,-0.4315408
56.8,-0.416282
56.85,-0.4017069
56.9,-0.4013495
56.95,-0.4072416
57,-0.4267936
57.05,-0.4503206
57.1,-0.4585261
57.15,-0.4627747
57.2,-0.4672731
57.25,-0.4657668
57.3,-0.463138
57.35,-0.4576491
57.4,-0.4693047
57.45,-0.4659028
57.5,-0.4780642
57.55,-0.4707644
57.6,-0.4531336
57.65,-0.4288834
57.7,-0.4098601
57.75,-0.3968813
57.8,-0.3934116
57.85,-0.39573
57.9,-0.4094571
57.95,-0.4134758
58,-0.4168576
58.05,-0.4102684
58.1,-0.4127115
58.15,-0.4169239
58.2,-0.429987
58.25,-0.43218
58.3,-0.4147768
58.35,-0.385713
58.4,-0.3584509
58.45,-0.3430175
58.5,-0.3349357
58.55,-0.3386957
58.6,-0.3463063
58.65,-0.3368394
58.7,-0.3210168
58.75,-0.3129418
58.8,-0.3165315
58.85,-0.3426822
58.9,-0.3776698
58.95,-0.4148524
59,-0.4372141
59.05,-0.4358541
59.1,-0.4150042
59.15,-0.3898406
59.2,-0.3886154
59.25,-0.4096805
59.3,-0.4211811
59.35,-0.4185345
59.4,-0.3964053
59.45,-0.3695107
59.5,-0.3549351
59.55,-0.3573208
59.6,-0.3779924
59.65,-0.3974321
59.7,-0.4088211
59.75,-0.4057161
59.8,-0.3888793
59.85,-0.3885962
59.9,-0.3771196
59.95,-0.372518
60,-0.3784653
60.05,-0.3779759
60.1,-0.3611575
60.15,-0.3701081
60.2,-0.3771837
60.25,-0.3908628
60.3,-0.3982713
60.35,-0.3959445
60.4,-0.3714521
60.45,-0.3409369
60.5,-0.3350062
60.55,-0.3506666
60.6,-0.3510535
60.65,-0.3816161
60.7,-0.4056864
60.75,-0.4065711
60.8,-0.4135951
60.85,-0.4065259
60.9,-0.3814113
60.95,-0.3675433
61,-0.3856277
61.05,-0.3994003
61.1,-0.4069902
61.15,-0.4109687
61.2,-0.4133292
61.25,-0.3831789
61.3,-0.3805608
61.35,-0.4081758
61.4,-0.4118344
61.45,-0.392391
61.5,-0.3821698
61.55,-0.396503
61.6,-0.3873244
61.65,-0.3868138
61.7,-0.3971077
61.75,-0.4097624
61.8,-0.4346464
61.85,-0.4625783
61.9,-0.4637633
61.95,-0.4531544
62,-0.4249923
62.05,-0.4140525
62.1,-0.4237967
62.15,-0.461676
62.2,-0.5011705
62.25,-0.5045394
62.3,-0.4781605
62.35,-0.4704576
62.4,-0.4668839
62.45,-0.4578446
62.5,-0.4641846
62.55,-0.4425131
62.6,-0.4479795
62.65,-0.4486492
62.7,-0.4674476
62.75,-0.4974366
62.8,-0.4829127
62.85,-0.4469061
62.9,-0.4020565
62.95,-0.3906692
63,-0.4108602
63.05,-0.4364358
63.1,-0.4507765
63.15,-0.4699782
63.2,-0.468437
63.25,-0.4448546
63.3,-0.4234619
63.35,-0.4126744
63.4,-0.3937409
63.45,-0.3730677
63.5,-0.3721798
63.55,-0.3955703
63.6,-0.4178352
63.65,-0.4374784
63.7,-0.4648998
63.75,-0.4907385
63.8,-0.4957562
63.85,-0.4771221
63.9,-0.4608313
63.95,-0.433127
64,-0.4183
64.05,-0.4061701
64.1,-0.4057406
64.15,-0.4158675
64.2,-0.4172165
64.25,-0.4099433
64.3,-0.4092873
64.35,-0.4065756
64.4,-0.4163631
64.45,-0.4212067
64.5,-0.4195271
64.55,-0.4011876
64.6,-0.3716743
64.65,-0.3517753
64.7,-0.3554386
64.75,-0.3748198
64.8,-0.4058336
64.85,-0.4130386
64.9,-0.4084586
64.95,-0.4013844
65,-0.3986457
65.05,-0.4152634
65.1,-0.4430629
65.15,-0.465023
65.2,-0.472129
65.25,-0.4781523
65.3,-0.4843524
65.35,-0.4762312
65.4,-0.4770018
65.45,-0.486498
65.5,-0.4871389
65.55,-0.4886614
65.6,-0.4719728
65.65,-0.4364461
65.7,-0.3906149
65.75,-0.3614975
65.8,-0.3624282
65.85,-0.3833229
65.9,-0.395783
65.95,-0.4074901
66,-0.3935677
66.05,-0.4015669
66.1,-0.4201731
66.15,-0.4387843
66.2,-0.4604518
66.25,-0.4642549
66.3,-0.4583829
66.35,-0.4262336
66.4,-0.3789524
66.45,-0.3607711
66.5,-0.3509415
66.55,-0.3466588
66.6,-0.3295378
66.65,-0.3139804
66.7,-0.3049365
66.75,-0.3024569
66.8,-0.3255612
66.85,-0.3567663
66.9,-0.3816972
66.95,-0.392747
67,-0.3914654
67.05,-0.3833287
67.1,-0.3603316
67.15,-0.3289521
67.2,-0.2997941
67.25,-0.2949605
67.3,-0.3229125
67.35,-0.3464864
67.4,-0.3775788
67.45,-0.3881694
67.5,-0.3963585
67.55,-0.3911927
67.6,-0.3907913
67.65,-0.3964716
67.7,-0.4137819
67.75,-0.4146937
67.8,-0.4149524
67.85,-0.4024094
67.9,-0.3713492
67.95,-0.3505977
68,-0.3663447
68.05,-0.3918251
68.1,-0.4127782
68.15,-0.4040385
68.2,-0.380931
68.25,-0.3456548
68.3,-0.3259431
68.35,-0.3358267
68.4,-0.3578261
68.45,-0.3900131
68.5,-0.4201326
68.55,-0.4235817
68.6,-0.4229532
68.65,-0.4114247
68.7,-0.4025281
68.75,-0.4018017
68.8,-0.4018902
68.85,-0.4000541
68.9,-0.4020205
68.95,-0.3948518
69,-0.3913508
69.05,-0.3738926
69.1,-0.3724874
69.15,-0.3746841
69.2,-0.3783866
69.25,-0.4094297
69.3,-0.4507434
69.35,-0.4721451
69.4,-0.4721451
69.45,-0.4721451
69.5,-0.4721451
69.55,-0.4721451
69.6,-0.4721451
69.65,-0.4721451
69.7,-0.4721451
69.75,-0.4721451
69.8,-0.4721451
69.85,-0.4721451
69.9,-0.4721451
69.95,-0.4721451
 
Alignment,On
